File: v44/content/data/DiffuserScan.UXD
; C:\DIFFDAT1\Praktikum\Tom lukas\DiffuserScan.raw(Diffrac Plus V1.01 file) converted by XCH V1.0
_FILEVERSION=2
_SITE='Deutschland'
_USER='Administrator'
_GONIOMETER_CODE=4885
; D8 Theta/Theta; Special
_SAMPLE_CHANGER_CODE=0
_ATTACHMENTS_CODE=0
_GONIOMETER_RADIUS=350
_FIXED_DIVSLIT=0.600000
_FIXED_SAMPLESLIT=0.000000
_FIXED_DETSLIT=11.66
_MONOCHROMATOR=0
; None
_THIN_FILM='N'
_BETA_FILTER='Y'
_FIXED_ANTISLIT=8.340000
_ANALYZER_CODE=0
; None
_DATEMEASURED='26-Jun-2023 11:21:01'
_WL_UNIT='A'
_WL1=1.540600
_WL2=1.544390
_WL3=1.392220
_WLRATIO=0.500000
_ANODE='Cu'
; (Data for Range number 1)
_DRIVE='THETA'
_STEPTIME=5.000660
_STEPSIZE=0.005000
_STEPMODE='C'
_START=0.000000
_THETA=0.000000
_2THETA=0.100000
_KHI=0.000000
_PHI=90
_X=-2.005000
_Y=0.500000
_Z=0.086000
_DIVERGENCE=0.000000
_ANTISCATTER=0.000000
_DETECTOR=5
_DETECTORSLIT='unkn'
_AUX1=0.000000
_AUX2=0.000000
_AUX3=0.000000
_TIMESTARTED=2.000000
_TEMP_RATE=-1.000000
_TEMP_DELAY=-1.000000
_KV=40
_MA=35
_RANGE_WL=1.540600
_3DPLANE=0
_GONIOMETER=0.097600
_PSDCHANNEL0=0
_2THETACOUNTS
   0.0000     80785
   0.0100     56567
   0.0200     37277
   0.0300     21788
   0.0400     15181
   0.0500      8932
   0.0600      8473
   0.0700      5728
   0.0800      6987
   0.0900      5929
   0.1000      5458
   0.1100      5585
   0.1200      3882
   0.1300      3117
   0.1400      2581
   0.1500      2191
   0.1600      1783
   0.1700      1646
   0.1800      1553
   0.1900      1354
   0.2000      1208
   0.2100       862
   0.2200       602
   0.2300       418
   0.2400       276
   0.2500       159
   0.2600       137
   0.2700       103
   0.2800        91
   0.2900        87
   0.3000        60
   0.3100        52
   0.3200        59
   0.3300        50
   0.3400        36
   0.3500        41
   0.3600        23
   0.3700        36
   0.3800        34
   0.3900        22
   0.4000        29
   0.4100        26
   0.4200        21
   0.4300        23
   0.4400        17
   0.4500        12
   0.4600        15
   0.4700        17
   0.4800        11
   0.4900        15
   0.5000         7
   0.5100        10
   0.5200        14
   0.5300         6
   0.5400        10
   0.5500         8
   0.5600         6
   0.5700         7
   0.5800         5
   0.5900         7
   0.6000         5
   0.6100        11
   0.6200         4
   0.6300         6
   0.6400         5
   0.6500         6
   0.6600         3
   0.6700         6
   0.6800         5
   0.6900         0
   0.7000         2
   0.7100         4
   0.7200         1
   0.7300         2
   0.7400         3
   0.7500         3
   0.7600         2
   0.7700         6
   0.7800         1
   0.7900         2
   0.8000         2
   0.8100         4
   0.8200         3
   0.8300         0
   0.8400         1
   0.8500         1
   0.8600         4
   0.8700         3
   0.8800         0
   0.8900         3
   0.9000         1
   0.9100         2
   0.9200         1
   0.9300         1
   0.9400         2
   0.9500         2
   0.9600         2
   0.9700         0
   0.9800         1
   0.9900         1
   1.0000         0
   1.0100         1
   1.0200         2
   1.0300         2
   1.0400         0
   1.0500         0
   1.0600         0
   1.0700         1
   1.0800         1
   1.0900         1
   1.1000         1
   1.1100         0
   1.1200         1
   1.1300         2
   1.1400         1
   1.1500         0
   1.1600         1
   1.1700         0
   1.1800         2
   1.1900         1
   1.2000         1
   1.2100         0
   1.2200         1
   1.2300         0
   1.2400         1
   1.2500         0
   1.2600         0
   1.2700         1
   1.2800         0
   1.2900         0
   1.3000         1
   1.3100         2
   1.3200         0
   1.3300         0
   1.3400         0
   1.3500         1
   1.3600         0
   1.3700         0
   1.3800         0
   1.3900         1
   1.4000         1
   1.4100         0
   1.4200         0
   1.4300         0
   1.4400         0
   1.4500         0
   1.4600         0
   1.4700         0
   1.4800         1
   1.4900         0
   1.5000         0
   1.5100         1
   1.5200         0
   1.5300         0
   1.5400         1
   1.5500         0
   1.5600         0
   1.5700         0
   1.5800         0
   1.5900         0
   1.6000         0
   1.6100         0
   1.6200         0
   1.6300         0
   1.6400         0
   1.6500         1
   1.6600         0
   1.6700         0
   1.6800         0
   1.6900         0
   1.7000         0
   1.7100         0
   1.7200         0
   1.7300         0
   1.7400         0
   1.7500         0
   1.7600         0
   1.7700         0
   1.7800         0
   1.7900         0
   1.8000         0
   1.8100         1
   1.8200         0
   1.8300         0
   1.8400         0
   1.8500         0
   1.8600         0
   1.8700         0
   1.8800         0
   1.8900         0
   1.9000         0
   1.9100         0
   1.9200         0
   1.9300         0
   1.9400         0
   1.9500         0
   1.9600         0
   1.9700         0
   1.9800         0
   1.9900         0
   2.0000         0
   2.0100         0
   2.0200         0
   2.0300         1
   2.0400         0
   2.0500         0
   2.0600         0
   2.0700         0
   2.0800         0
   2.0900         0
   2.1000         1
   2.1100         0
   2.1200         0
   2.1300         0
   2.1400         0
   2.1500         0
   2.1600         0
   2.1700         0
   2.1800         0
   2.1900         0
   2.2000         0
   2.2100         0
   2.2200         0
   2.2300         0
   2.2400         0
   2.2500         0
   2.2600         0
   2.2700         0
   2.2800         0
   2.2900         0
   2.3000         0
   2.3100         0
   2.3200         0
   2.3300         0
   2.3400         0
   2.3500         0
   2.3600         0
   2.3700         0
   2.3800         0
   2.3900         0
   2.4000         0
   2.4100         0
   2.4200         0
   2.4300         0
   2.4400         0
   2.4500         0
   2.4600         0
   2.4700         1
   2.4800         0
   2.4900         0
   2.5000         0