File: v44/content/data/DScan.UXD
#; C:\DIFFDAT1\Praktikum\Tom lukas\DScan.raw(Diffrac Plus V1.01 file) converted by XCH V1.0
#_FILEVERSION=2
#_SITE='Deutschland'
#_USER='Administrator'
#_GONIOMETER_CODE=4885
#; D8 Theta/Theta; Special
#_SAMPLE_CHANGER_CODE=0
#_ATTACHMENTS_CODE=0
#_GONIOMETER_RADIUS=350
#_FIXED_DIVSLIT=0.600000
#_FIXED_SAMPLESLIT=0.000000
#_FIXED_DETSLIT=11.66
#_MONOCHROMATOR=0
#; None
#_THIN_FILM='N'
#_BETA_FILTER='Y'
#_FIXED_ANTISLIT=8.340000
#_ANALYZER_CODE=0
#; None
#_DATEMEASURED='26-Jun-2023 09:30:31'
#_WL_UNIT='A'
#_WL1=1.540600
#_WL2=1.544390
#_WL3=1.392220
#_WLRATIO=0.500000
#_ANODE='Cu'
#; (Data for Range number 1)
#_DRIVE='2THETA'
#_STEPTIME=1.000000
#_STEPSIZE=0.005000
#_STEPMODE='S'
#_START=-0.500000
#_THETA=0.000000
#_2THETA=-0.500000
#_KHI=0.000000
#_PHI=90
#_X=0.000000
#_Y=0.000000
#_Z=-20
#_DIVERGENCE=0.000000
#_ANTISCATTER=0.000000
#_DETECTOR=5
#_DETECTORSLIT='unkn'
#_AUX1=0.000000
#_AUX2=0.000000
#_AUX3=0.000000
#_TIMESTARTED=2.000000
#_TEMP_RATE=-1.000000
#_TEMP_DELAY=-1.000000
#_KV=40
#_MA=35
#_RANGE_WL=1.540600
#_3DPLANE=0
#_GONIOMETER=-0.500000
#_PSDCHANNEL0=0
#_2THETACOUNTS
  -0.5000         0
  -0.4950         0
  -0.4900         0
  -0.4850         0
  -0.4800         0
  -0.4750         0
  -0.4700         0
  -0.4650         1
  -0.4600         0
  -0.4550         0
  -0.4500         0
  -0.4450         0
  -0.4400         0
  -0.4350         0
  -0.4300         0
  -0.4250         0
  -0.4200         0
  -0.4150         1
  -0.4100         0
  -0.4050         0
  -0.4000         0
  -0.3950         0
  -0.3900         0
  -0.3850         0
  -0.3800         2
  -0.3750         0
  -0.3700         0
  -0.3650         0
  -0.3600         0
  -0.3550         0
  -0.3500         0
  -0.3450         0
  -0.3400         0
  -0.3350         0
  -0.3300         0
  -0.3250         0
  -0.3200         0
  -0.3150         1
  -0.3100         1
  -0.3050         2
  -0.3000         1
  -0.2950         1
  -0.2900         0
  -0.2850         0
  -0.2800         1
  -0.2750         1
  -0.2700         0
  -0.2650         0
  -0.2600         1
  -0.2550         0
  -0.2500         0
  -0.2450         2
  -0.2400         2
  -0.2350         4
  -0.2300         3
  -0.2250         1
  -0.2200         3
  -0.2150         2
  -0.2100         5
  -0.2050         1
  -0.2000         3
  -0.1950         3
  -0.1900        11
  -0.1850        23
  -0.1800        84
  -0.1750       115
  -0.1700       221
  -0.1650       370
  -0.1600       606
  -0.1550       844
  -0.1500      1070
  -0.1450      1418
  -0.1400      1850
  -0.1350      2323
  -0.1300      2855
  -0.1250      3670
  -0.1200      4413
  -0.1150      5516
  -0.1100      6821
  -0.1050      8969
  -0.1000     11133
  -0.0950     13173
  -0.0900     15687
  -0.0850     20329
  -0.0800     25236
  -0.0750     30565
  -0.0700     36979
  -0.0650     48788
  -0.0600     64246
  -0.0550     80801
  -0.0500     92783
  -0.0450    102545
  -0.0400    107703
  -0.0350    112638
  -0.0300    117134
  -0.0250    124164
  -0.0200    132543
  -0.0150    145853
  -0.0100    160164
  -0.0050    175544
   0.0000    183955
   0.0050    185026
   0.0100    177537
   0.0150    164989
   0.0200    154396
   0.0250    141323
   0.0300    124490
   0.0350    100246
   0.0400     79191
   0.0450     59557
   0.0500     44990
   0.0550     37032
   0.0600     34072
   0.0650     30941
   0.0700     27571
   0.0750     23652
   0.0800     22181
   0.0850     22538
   0.0900     22073
   0.0950     19552
   0.1000     15862
   0.1050     12914
   0.1100     11076
   0.1150     11344
   0.1200     11650
   0.1250     11383
   0.1300      9554
   0.1350      7775
   0.1400      6511
   0.1450      5744
   0.1500      5741
   0.1550      5386
   0.1600      4506
   0.1650      3689
   0.1700      3305
   0.1750      3367
   0.1800      3383
   0.1850      3099
   0.1900      2515
   0.1950      1956
   0.2000      1596
   0.2050      1375
   0.2100      1210
   0.2150      1082
   0.2200       802
   0.2250       464
   0.2300       274
   0.2350       155
   0.2400       116
   0.2450        63
   0.2500        25
   0.2550        11
   0.2600         8
   0.2650         2
   0.2700         5
   0.2750         3
   0.2800         1
   0.2850         2
   0.2900         2
   0.2950         0
   0.3000         1
   0.3050         0
   0.3100         0
   0.3150         3
   0.3200         0
   0.3250         1
   0.3300         0
   0.3350         0
   0.3400         0
   0.3450         0
   0.3500         1
   0.3550         0
   0.3600         0
   0.3650         0
   0.3700         0
   0.3750         0
   0.3800         1
   0.3850         0
   0.3900         0
   0.3950         0
   0.4000         0
   0.4050         0
   0.4100         0
   0.4150         0
   0.4200         0
   0.4250         0
   0.4300         0
   0.4350         0
   0.4400         0
   0.4450         0
   0.4500         0
   0.4550         0
   0.4600         0
   0.4650         0
   0.4700         0
   0.4750         0
   0.4800         0
   0.4850         0
   0.4900         0
   0.4950         0
   0.5000         0