File: v44/content/data/ReflectScan.UXD
#; C:\DIFFDAT1\Praktikum\Tom lukas\ReflectScan.raw(Diffrac Plus V1.01 file) converted by XCH V1.0
#_FILEVERSION=2
#_SITE='Deutschland'
#_USER='Administrator'
#_GONIOMETER_CODE=4885
#; D8 Theta/Theta; Special
#_SAMPLE_CHANGER_CODE=0
#_ATTACHMENTS_CODE=0
#_GONIOMETER_RADIUS=350
#_FIXED_DIVSLIT=0.600000
#_FIXED_SAMPLESLIT=0.000000
#_FIXED_DETSLIT=11.66
#_MONOCHROMATOR=0
#; None
#_THIN_FILM='N'
#_BETA_FILTER='Y'
#_FIXED_ANTISLIT=8.340000
#_ANALYZER_CODE=0
#; None
#_DATEMEASURED='26-Jun-2023 10:29:13'
#_WL_UNIT='A'
#_WL1=1.540600
#_WL2=1.544390
#_WL3=1.392220
#_WLRATIO=0.500000
#_ANODE='Cu'
#; (Data for Range number 1)
#_DRIVE='THETA'
#_STEPTIME=5.000660
#_STEPSIZE=0.005000
#_STEPMODE='C'
#_START=0.000000
#_THETA=0.000000
#_2THETA=-0.001600
#_KHI=0.000000
#_PHI=90
#_X=-2.005000
#_Y=0.500000
#_Z=0.086000
#_DIVERGENCE=0.000000
#_ANTISCATTER=0.000000
#_DETECTOR=5
#_DETECTORSLIT='unkn'
#_AUX1=0.000000
#_AUX2=0.000000
#_AUX3=0.000000
#_TIMESTARTED=4.000000
#_TEMP_RATE=-1.000000
#_TEMP_DELAY=-1.000000
#_KV=40
#_MA=35
#_RANGE_WL=1.540600
#_3DPLANE=0
#_GONIOMETER=-0.004000
#_PSDCHANNEL0=0
#_2THETACOUNTS
   0.0000    401072
   0.0100    823366
   0.0200    547119
   0.0300    293457
   0.0400    266492
   0.0500    299683
   0.0600    304278
   0.0700    334095
   0.0800    358612
   0.0900    388018
   0.1000    422559
   0.1100    455417
   0.1200    490491
   0.1300    522191
   0.1400    550987
   0.1500    572635
   0.1600    556691
   0.1700    528273
   0.1800    564083
   0.1900    556457
   0.2000    603115
   0.2100    544711
   0.2200    480773
   0.2300    294300
   0.2400    100732
   0.2500     46018
   0.2600     57868
   0.2700     48674
   0.2800     21232
   0.2900      8992
   0.3000     15879
   0.3100     19681
   0.3200     12323
   0.3300      4537
   0.3400      4184
   0.3500      7859
   0.3600      7999
   0.3700      4556
   0.3800      1672
   0.3900      2410
   0.4000      4066
   0.4100      4050
   0.4200      2101
   0.4300       887
   0.4400      1298
   0.4500      2189
   0.4600      2231
   0.4700      1179
   0.4800       514
   0.4900       779
   0.5000      1358
   0.5100      1316
   0.5200       734
   0.5300       329
   0.5400       463
   0.5500       832
   0.5600       867
   0.5700       532
   0.5800       254
   0.5900       282
   0.6000       498
   0.6100       589
   0.6200       404
   0.6300       194
   0.6400       156
   0.6500       333
   0.6600       377
   0.6700       279
   0.6800       143
   0.6900       111
   0.7000       197
   0.7100       266
   0.7200       230
   0.7300       111
   0.7400        87
   0.7500       123
   0.7600       164
   0.7700       141
   0.7800       116
   0.7900        55
   0.8000        68
   0.8100       114
   0.8200       123
   0.8300        73
   0.8400        46
   0.8500        57
   0.8600        64
   0.8700        97
   0.8800        62
   0.8900        30
   0.9000        47
   0.9100        50
   0.9200        50
   0.9300        64
   0.9400        24
   0.9500        25
   0.9600        31
   0.9700        50
   0.9800        44
   0.9900        24
   1.0000        19
   1.0100        22
   1.0200        30
   1.0300        22
   1.0400        20
   1.0500         9
   1.0600        16
   1.0700        31
   1.0800        23
   1.0900        15
   1.1000         6
   1.1100        13
   1.1200        14
   1.1300        13
   1.1400        12
   1.1500        18
   1.1600         9
   1.1700        14
   1.1800         9
   1.1900        16
   1.2000         6
   1.2100         9
   1.2200        12
   1.2300         9
   1.2400        14
   1.2500        10
   1.2600         5
   1.2700         3
   1.2800         5
   1.2900         9
   1.3000         7
   1.3100         2
   1.3200         3
   1.3300         6
   1.3400         4
   1.3500         6
   1.3600         4
   1.3700         1
   1.3800         2
   1.3900         2
   1.4000         2
   1.4100         2
   1.4200         2
   1.4300         0
   1.4400         2
   1.4500         1
   1.4600         1
   1.4700         0
   1.4800         1
   1.4900         4
   1.5000         0
   1.5100         0
   1.5200         1
   1.5300         0
   1.5400         4
   1.5500         4
   1.5600         2
   1.5700         0
   1.5800         1
   1.5900         0
   1.6000         2
   1.6100         0
   1.6200         0
   1.6300         2
   1.6400         2
   1.6500         1
   1.6600         2
   1.6700         1
   1.6800         1
   1.6900         1
   1.7000         1
   1.7100         0
   1.7200         0
   1.7300         0
   1.7400         0
   1.7500         1
   1.7600         0
   1.7700         0
   1.7800         1
   1.7900         0
   1.8000         0
   1.8100         0
   1.8200         1
   1.8300         0
   1.8400         1
   1.8500         0
   1.8600         0
   1.8700         1
   1.8800         0
   1.8900         0
   1.9000         1
   1.9100         0
   1.9200         2
   1.9300         0
   1.9400         0
   1.9500         0
   1.9600         2
   1.9700         0
   1.9800         0
   1.9900         0
   2.0000         1
   2.0100         0
   2.0200         0
   2.0300         0
   2.0400         0
   2.0500         1
   2.0600         0
   2.0700         0
   2.0800         0
   2.0900         0
   2.1000         0
   2.1100         0
   2.1200         0
   2.1300         0
   2.1400         0
   2.1500         0
   2.1600         0
   2.1700         0
   2.1800         0
   2.1900         0
   2.2000         0
   2.2100         1
   2.2200         0
   2.2300         0
   2.2400         0
   2.2500         0
   2.2600         0
   2.2700         0
   2.2800         0
   2.2900         0
   2.3000         0
   2.3100         0
   2.3200         1
   2.3300         0
   2.3400         0
   2.3500         1
   2.3600         0
   2.3700         0
   2.3800         0
   2.3900         0
   2.4000         0
   2.4100         0
   2.4200         0
   2.4300         0
   2.4400         0
   2.4500         0
   2.4600         1
   2.4700         0
   2.4800         0
   2.4900         0
   2.5000         0