File: v44/content/data/Rocking1.UXD
; C:\DIFFDAT1\Praktikum\Tom lukas\Rocking1.raw(Diffrac Plus V1.01 file) converted by XCH V1.0
_FILEVERSION=2
_SITE='Deutschland'
_USER='Administrator'
_GONIOMETER_CODE=4885
; D8 Theta/Theta; Special
_SAMPLE_CHANGER_CODE=0
_ATTACHMENTS_CODE=0
_GONIOMETER_RADIUS=350
_FIXED_DIVSLIT=0.600000
_FIXED_SAMPLESLIT=0.000000
_FIXED_DETSLIT=11.66
_MONOCHROMATOR=0
; None
_THIN_FILM='N'
_BETA_FILTER='Y'
_FIXED_ANTISLIT=8.340000
_ANALYZER_CODE=0
; None
_DATEMEASURED='26-Jun-2023 09:48:21'
_WL_UNIT='A'
_WL1=1.540600
_WL2=1.544390
_WL3=1.392220
_WLRATIO=0.500000
_ANODE='Cu'
; (Data for Range number 1)
_DRIVE='THETA'
_STEPTIME=0.999980
_STEPSIZE=0.020000
_STEPMODE='C'
_START=-1.000000
_THETA=-1.000000
_2THETA=0.000000
_KHI=0.000000
_PHI=90
_X=-2.005000
_Y=0.500000
_Z=0.069000
_DIVERGENCE=0.000000
_ANTISCATTER=0.000000
_DETECTOR=5
_DETECTORSLIT='unkn'
_AUX1=0.000000
_AUX2=0.000000
_AUX3=0.000000
_TIMESTARTED=2.000000
_TEMP_RATE=-1.000000
_TEMP_DELAY=-1.000000
_KV=40
_MA=35
_RANGE_WL=1.540600
_3DPLANE=0
_GONIOMETER=-0.001700
_PSDCHANNEL0=0
_2THETACOUNTS
  -1.0000         0
  -0.9800         2
  -0.9600         0
  -0.9400         0
  -0.9200         0
  -0.9000         0
  -0.8800         0
  -0.8600         0
  -0.8400         0
  -0.8200         0
  -0.8000         0
  -0.7800         0
  -0.7600         1
  -0.7400         0
  -0.7200         0
  -0.7000         1
  -0.6800         1
  -0.6600         0
  -0.6400         0
  -0.6200         1
  -0.6000         1
  -0.5800         3
  -0.5600         1
  -0.5400         5
  -0.5200         3
  -0.5000         2
  -0.4800         2
  -0.4600         5
  -0.4400         5
  -0.4200        10
  -0.4000         6
  -0.3800        10
  -0.3600        10
  -0.3400        27
  -0.3200        20
  -0.3000        31
  -0.2800        33
  -0.2600        62
  -0.2400        86
  -0.2200       278
  -0.2000      1513
  -0.1800      4895
  -0.1600     10618
  -0.1400     18151
  -0.1200     27256
  -0.1000     37318
  -0.0800     47446
  -0.0600     57704
  -0.0400     67457
  -0.0200     78090
   0.0000     85828
   0.0200     77630
   0.0400     67057
   0.0600     55810
   0.0800     45228
   0.1000     34338
   0.1200     24573
   0.1400     15805
   0.1600      8829
   0.1800      4021
   0.2000      1202
   0.2200       248
   0.2400       101
   0.2600        52
   0.2800        38
   0.3000        31
   0.3200        17
   0.3400         8
   0.3600        10
   0.3800        13
   0.4000         5
   0.4200         7
   0.4400         5
   0.4600         3
   0.4800         3
   0.5000         3
   0.5200         5
   0.5400         3
   0.5600         3
   0.5800         0
   0.6000         0
   0.6200         0
   0.6400         1
   0.6600         1
   0.6800         0
   0.7000         0
   0.7200         1
   0.7400         0
   0.7600         0
   0.7800         0
   0.8000         0
   0.8200         0
   0.8400         0
   0.8600         0
   0.8800         0
   0.9000         0
   0.9200         0
   0.9400         0
   0.9600         0
   0.9800         0
   1.0000         0