File: v44/content/data/ZScan2.UXD
#; C:\DIFFDAT1\Praktikum\Tom lukas\ZScan2.raw(Diffrac Plus V1.01 file) converted by XCH V1.0
#_FILEVERSION=2
#_SITE='Deutschland'
#_USER='Administrator'
#_GONIOMETER_CODE=4885
#; D8 Theta/Theta; Special
#_SAMPLE_CHANGER_CODE=0
#_ATTACHMENTS_CODE=0
#_GONIOMETER_RADIUS=350
#_FIXED_DIVSLIT=0.600000
#_FIXED_SAMPLESLIT=0.000000
#_FIXED_DETSLIT=11.66
#_MONOCHROMATOR=0
#; None
#_THIN_FILM='N'
#_BETA_FILTER='Y'
#_FIXED_ANTISLIT=8.340000
#_ANALYZER_CODE=0
#; None
#_DATEMEASURED='26-Jun-2023 09:51:53'
#_WL_UNIT='A'
#_WL1=1.540600
#_WL2=1.544390
#_WL3=1.392220
#_WLRATIO=0.500000
#_ANODE='Cu'
#; (Data for Range number 1)
#_DRIVE='Z'
#_STEPTIME=1.000000
#_STEPSIZE=0.010000
#_STEPMODE='C'
#_START=-0.500000
#_THETA=0.000800
#_2THETA=0.000000
#_KHI=0.000000
#_PHI=90
#_X=-2.005000
#_Y=0.500000
#_Z=-0.500000
#_DIVERGENCE=0.000000
#_ANTISCATTER=0.000000
#_DETECTOR=5
#_DETECTORSLIT='unkn'
#_AUX1=0.000000
#_AUX2=0.000000
#_AUX3=0.000000
#_TIMESTARTED=3.000000
#_TEMP_RATE=-1.000000
#_TEMP_DELAY=-1.000000
#_KV=40
#_MA=35
#_RANGE_WL=1.540600
#_3DPLANE=0
#_GONIOMETER=0.000000
#_PSDCHANNEL0=0
#_2THETACOUNTS
  -0.5000    164699
  -0.4900    166587
  -0.4800    166192
  -0.4700    164683
  -0.4600    167156
  -0.4500    168057
  -0.4400    168365
  -0.4300    165300
  -0.4200    166050
  -0.4100    167575
  -0.4000    165244
  -0.3900    164897
  -0.3800    165584
  -0.3700    165884
  -0.3600    167322
  -0.3500    166564
  -0.3400    165600
  -0.3300    167132
  -0.3200    166090
  -0.3100    168420
  -0.3000    165118
  -0.2900    166366
  -0.2800    166342
  -0.2700    164857
  -0.2600    167575
  -0.2500    165505
  -0.2400    167330
  -0.2300    166848
  -0.2200    166271
  -0.2100    165015
  -0.2000    166722
  -0.1900    168065
  -0.1800    165308
  -0.1700    166777
  -0.1600    165734
  -0.1500    166287
  -0.1400    166279
  -0.1300    166469
  -0.1200    166635
  -0.1100    166437
  -0.1000    166271
  -0.0900    167172
  -0.0800    170032
  -0.0700    167725
  -0.0600    174219
  -0.0500    173942
  -0.0400    174385
  -0.0300    176786
  -0.0200    176154
  -0.0100    175759
   0.0000    174606
   0.0100    172141
   0.0200    171090
   0.0300    172978
   0.0400    167369
   0.0500    151337
   0.0600    122291
   0.0700     91174
   0.0800     59912
   0.0900     27924
   0.1000      6469
   0.1100       540
   0.1200        86
   0.1300        14
   0.1400         8
   0.1500         4
   0.1600         1
   0.1700         0
   0.1800         0
   0.1900         0
   0.2000         0
   0.2100         0
   0.2200         0
   0.2300         0
   0.2400         0
   0.2500         1
   0.2600         0
   0.2700         0
   0.2800         0
   0.2900         0
   0.3000         0
   0.3100         0
   0.3200         0
   0.3300         0
   0.3400         0
   0.3500         0
   0.3600         0
   0.3700         0
   0.3800         0
   0.3900         0
   0.4000         0
   0.4100         0
   0.4200         0
   0.4300         0
   0.4400         0
   0.4500         0
   0.4600         0
   0.4700         5
   0.4800         3
   0.4900        14
   0.5000        21