File: v44/content/data/ZScan2_neu.UXD
#; C:\DIFFDAT1\Praktikum\Tom lukas\ZScan2_neu.raw(Diffrac Plus V1.01 file) converted by XCH V1.0
#_FILEVERSION=2
#_SITE='Deutschland'
#_USER='Administrator'
#_GONIOMETER_CODE=4885
#; D8 Theta/Theta; Special
#_SAMPLE_CHANGER_CODE=0
#_ATTACHMENTS_CODE=0
#_GONIOMETER_RADIUS=350
#_FIXED_DIVSLIT=0.600000
#_FIXED_SAMPLESLIT=0.000000
#_FIXED_DETSLIT=11.66
#_MONOCHROMATOR=0
#; None
#_THIN_FILM='N'
#_BETA_FILTER='Y'
#_FIXED_ANTISLIT=8.340000
#_ANALYZER_CODE=0
#; None
#_DATEMEASURED='26-Jun-2023 10:07:55'
#_WL_UNIT='A'
#_WL1=1.540600
#_WL2=1.544390
#_WL3=1.392220
#_WLRATIO=0.500000
#_ANODE='Cu'
#; (Data for Range number 1)
#_DRIVE='Z'
#_STEPTIME=1.000000
#_STEPSIZE=0.010000
#_STEPMODE='C'
#_START=-0.500000
#_THETA=0.000800
#_2THETA=0.000000
#_KHI=0.000000
#_PHI=90
#_X=-2.005000
#_Y=0.500000
#_Z=-0.500000
#_DIVERGENCE=0.000000
#_ANTISCATTER=0.000000
#_DETECTOR=5
#_DETECTORSLIT='unkn'
#_AUX1=0.000000
#_AUX2=0.000000
#_AUX3=0.000000
#_TIMESTARTED=3.000000
#_TEMP_RATE=-1.000000
#_TEMP_DELAY=-1.000000
#_KV=40
#_MA=35
#_RANGE_WL=1.540600
#_3DPLANE=0
#_GONIOMETER=0.000000
#_PSDCHANNEL0=0
#_2THETACOUNTS
  -0.5000    162614
  -0.4900    158980
  -0.4800    163443
  -0.4700    162764
  -0.4600    159722
  -0.4500    161350
  -0.4400    161192
  -0.4300    161113
  -0.4200    160994
  -0.4100    160963
  -0.4000    158656
  -0.3900    159770
  -0.3800    158735
  -0.3700    160662
  -0.3600    162227
  -0.3500    161405
  -0.3400    159872
  -0.3300    159003
  -0.3200    159722
  -0.3100    161500
  -0.3000    161026
  -0.2900    161982
  -0.2800    161413
  -0.2700    163032
  -0.2600    160947
  -0.2500    162163
  -0.2400    161950
  -0.2300    158640
  -0.2200    159138
  -0.2100    158845
  -0.2000    159580
  -0.1900    159232
  -0.1800    159880
  -0.1700    159193
  -0.1600    159225
  -0.1500    159722
  -0.1400    161587
  -0.1300    160844
  -0.1200    160425
  -0.1100    158861
  -0.1000    159343
  -0.0900    163427
  -0.0800    160386
  -0.0700    162582
  -0.0600    159880
  -0.0500    160947
  -0.0400    161168
  -0.0300    164367
  -0.0200    165315
  -0.0100    167275
   0.0000    166145
   0.0100    168128
   0.0200    166611
   0.0300    165679
   0.0400    167843
   0.0500    164786
   0.0600    157044
   0.0700    133501
   0.0800    104569
   0.0900     74054
   0.1000     43397
   0.1100     15990
   0.1200      2538
   0.1300       242
   0.1400        49
   0.1500        19
   0.1600         4
   0.1700         2
   0.1800         0
   0.1900         1
   0.2000         1
   0.2100         0
   0.2200         0
   0.2300         0
   0.2400         0
   0.2500         0
   0.2600         0
   0.2700         0
   0.2800         0
   0.2900         0
   0.3000         0
   0.3100         0
   0.3200         0
   0.3300         0
   0.3400         0
   0.3500         0
   0.3600         0
   0.3700         0
   0.3800         0
   0.3900         0
   0.4000         0
   0.4100         0
   0.4200         0
   0.4300         0
   0.4400         0
   0.4500         0
   0.4600         0
   0.4700         0
   0.4800         1
   0.4900         4
   0.5000         3